#
# This scattering intensity file was created by WAXSiS
#
# The calculated I(q) was interpolated to the experimental q-values
#
# q[A-1]        I(q)              sigma(q)
0.0340569 3.04733e+07 181700
0.0421706 3.0441e+07 181445
0.0502843 3.04086e+07 181190
0.0583981 3.03763e+07 180934
0.0665118 3.0344e+07 180679
0.0746255 3.03116e+07 180424
0.0827393 3.02793e+07 180169
0.090853 3.0247e+07 179914
0.0989667 3.02146e+07 179658
0.10708 3.01281e+07 178994
0.115194 3.00337e+07 178270
0.123308 2.99393e+07 177546
0.131422 2.98449e+07 176822
0.139535 2.97505e+07 176098
0.147649 2.96561e+07 175374
0.155763 2.95617e+07 174650
0.163877 2.94673e+07 173926
0.17199 2.93729e+07 173202
0.180104 2.92785e+07 172478
0.188218 2.91841e+07 171753
0.196332 2.90897e+07 171029
0.204445 2.89654e+07 170109
0.212559 2.88165e+07 169026
0.220673 2.86677e+07 167943
0.228786 2.85188e+07 166860
0.2369 2.83699e+07 165777
0.245014 2.8221e+07 164694
0.253128 2.80721e+07 163611
0.261241 2.79232e+07 162528
0.269355 2.77743e+07 161445
0.277469 2.76254e+07 160362
0.285583 2.74766e+07 159279
0.293696 2.73277e+07 158196
0.30181 2.71692e+07 157067
0.309924 2.69773e+07 155778
0.318038 2.67854e+07 154488
0.326151 2.65935e+07 153198
0.334265 2.64016e+07 151909
0.342379 2.62097e+07 150619
0.350492 2.60178e+07 149329
0.358606 2.58259e+07 148040
0.36672 2.56339e+07 146750
0.374834 2.5442e+07 145460
0.382947 2.52501e+07 144171
0.391061 2.50582e+07 142881
0.399175 2.48663e+07 141591
0.407289 2.46483e+07 140256
0.415402 2.44274e+07 138916
0.423516 2.42065e+07 137576
0.43163 2.39856e+07 136235
0.439743 2.37647e+07 134895
0.447857 2.35437e+07 133555
0.455971 2.33228e+07 132215
0.464085 2.31019e+07 130874
0.472198 2.2881e+07 129534
0.480312 2.26601e+07 128194
0.488426 2.24391e+07 126854
0.49654 2.22182e+07 125514
0.504653 2.19891e+07 124216
0.512767 2.1754e+07 122949
0.520881 2.15188e+07 121683
0.528995 2.12836e+07 120417
0.537108 2.10485e+07 119151
0.545222 2.08133e+07 117884
0.553336 2.05782e+07 116618
0.561449 2.0343e+07 115352
0.569563 2.01079e+07 114085
0.577677 1.98727e+07 112819
0.585791 1.96375e+07 111553
0.593904 1.94024e+07 110286
0.602018 1.91671e+07 109052
0.610132 1.89317e+07 107916
0.618246 1.86962e+07 106780
0.626359 1.84608e+07 105644
0.634473 1.82253e+07 104508
0.642587 1.79899e+07 103372
0.650701 1.77544e+07 102236
0.658814 1.7519e+07 101100
0.666928 1.72835e+07 99963.7
0.675042 1.70481e+07 98827.5
0.683155 1.68126e+07 97691.6
0.691269 1.65772e+07 96555.4
0.699383 1.63417e+07 95419.3
0.707497 1.61169e+07 94382.4
0.71561 1.5893e+07 93353.7
0.723724 1.5669e+07 92324.9
0.731838 1.54451e+07 91296.2
0.739952 1.52212e+07 90267.4
0.748065 1.49973e+07 89238.7
0.756179 1.47733e+07 88210
0.764293 1.45494e+07 87181.2
0.772407 1.43254e+07 86152.4
0.78052 1.41015e+07 85123.8
0.788634 1.38776e+07 84095
0.796748 1.36537e+07 83066.2
0.804861 1.34419e+07 82122.7
0.812975 1.32382e+07 81235.9
0.821089 1.30345e+07 80349.1
0.829203 1.28309e+07 79462.4
0.837316 1.26272e+07 78575.7
0.84543 1.24236e+07 77688.9
0.853544 1.22199e+07 76802.2
0.861658 1.20162e+07 75915.4
0.869771 1.18126e+07 75028.8
0.877885 1.16089e+07 74142
0.885999 1.14052e+07 73255.2
0.894113 1.12016e+07 72368.5
0.902226 1.1005e+07 71514.5
0.91034 1.08269e+07 70746.7
0.918454 1.06489e+07 69978.9
0.926567 1.04709e+07 69211.3
0.934681 1.02929e+07 68443.5
0.942795 1.01149e+07 67675.7
0.950909 9.93685e+06 66907.9
0.959022 9.75885e+06 66140.3
0.967136 9.58083e+06 65372.5
0.97525 9.40281e+06 64604.7
0.983364 9.22479e+06 63836.9
0.991477 9.04679e+06 63069.3
0.999591 8.86876e+06 62301.5
1.0077 8.71723e+06 61626.8
1.01582 8.56689e+06 60956.2
1.02393 8.41674e+06 60286.4
1.03205 8.26641e+06 59615.7
1.04016 8.11626e+06 58945.9
1.04827 7.9661e+06 58276.1
1.05639 7.81577e+06 57605.4
1.0645 7.66562e+06 56935.6
1.07261 7.51547e+06 56265.8
1.08073 7.36513e+06 55595.1
1.08884 7.21498e+06 54925.3
1.09696 7.06464e+06 54254.7
1.10507 6.93151e+06 53631.1
1.11318 6.80859e+06 53035.2
1.1213 6.68551e+06 52438.5
1.12941 6.56258e+06 51842.6
1.13752 6.43966e+06 51246.7
1.14564 6.31658e+06 50650.1
1.15375 6.19366e+06 50054.2
1.16187 6.07058e+06 49457.6
1.16998 5.94765e+06 48861.7
1.17809 5.82473e+06 48265.8
1.18621 5.70165e+06 47669.1
1.19432 5.57872e+06 47073.2
1.20243 5.46321e+06 46496.7
1.21055 5.3649e+06 45964.7
1.21866 5.26672e+06 45433.4
1.22678 5.16841e+06 44901.4
1.23489 5.07023e+06 44370.1
1.243 4.97204e+06 43838.8
1.25112 4.87374e+06 43306.8
1.25923 4.77555e+06 42775.4
1.26734 4.67736e+06 42244.1
1.27546 4.57906e+06 41712.1
1.28357 4.48087e+06 41180.8
1.29169 4.38257e+06 40648.8
1.2998 4.28438e+06 40117.5
1.30791 4.20683e+06 39647.1
1.31603 4.1297e+06 39177.7
1.32414 4.05267e+06 38708.9
1.33225 3.97564e+06 38240
1.34037 3.89852e+06 37770.6
1.34848 3.82149e+06 37301.8
1.3566 3.74436e+06 36832.4
1.36471 3.66733e+06 36363.5
1.37282 3.5903e+06 35894.7
1.38094 3.51318e+06 35425.3
1.38905 3.43615e+06 34956.4
1.39716 3.35911e+06 34487.6
1.40528 3.2932e+06 34052.5
1.41339 3.23338e+06 33636.4
1.42151 3.17349e+06 33219.8
1.42962 3.11367e+06 32803.7
1.43773 3.05386e+06 32387.5
1.44585 2.99397e+06 31970.9
1.45396 2.93415e+06 31554.8
1.46207 2.87434e+06 31138.7
1.47019 2.81445e+06 30722.1
1.4783 2.75463e+06 30306
1.48641 2.69481e+06 29889.9
1.49453 2.63492e+06 29473.3
1.50264 2.5795e+06 29072.4
1.51076 2.5331e+06 28702.7
1.51887 2.48677e+06 28333.4
1.52698 2.44044e+06 27964.1
1.5351 2.39404e+06 27594.4
1.54321 2.34771e+06 27225.1
1.55132 2.30137e+06 26855.8
1.55944 2.25498e+06 26486.1
1.56755 2.20865e+06 26116.8
1.57567 2.16225e+06 25747.1
1.58378 2.11592e+06 25377.8
1.59189 2.06958e+06 25008.6
1.60001 2.02321e+06 24638.9
1.60812 1.98718e+06 24312
1.61623 1.95115e+06 23985.2
1.62435 1.91507e+06 23657.9
1.63246 1.87904e+06 23331.1
1.64058 1.84297e+06 23003.8
1.64869 1.80694e+06 22676.9
1.6568 1.77091e+06 22350.1
1.66492 1.73484e+06 22022.8
1.67303 1.69881e+06 21696
1.68114 1.66278e+06 21369.1
1.68926 1.6267e+06 21041.9
1.69737 1.59067e+06 20715
1.70549 1.55989e+06 20419.7
1.7136 1.53168e+06 20140.1
1.72171 1.50347e+06 19860.5
1.72983 1.47522e+06 19580.5
1.73794 1.44701e+06 19300.9
1.74605 1.4188e+06 19021.2
1.75417 1.39055e+06 18741.3
1.76228 1.36234e+06 18461.6
1.7704 1.33409e+06 18181.7
1.77851 1.30588e+06 17902.1
1.78662 1.27767e+06 17622.4
1.79474 1.24942e+06 17342.5
1.80285 1.22331e+06 17079.8
1.81096 1.2011e+06 16848.4
1.81908 1.17886e+06 16616.8
1.82719 1.15664e+06 16385.5
1.83531 1.1344e+06 16153.8
1.84342 1.11218e+06 15922.5
1.85153 1.08997e+06 15691.1
1.85965 1.06773e+06 15459.5
1.86776 1.04551e+06 15228.1
1.87587 1.0233e+06 14996.8
1.88399 1.00105e+06 14765.1
1.8921 978839 14533.8
1.90022 956724 14303.1
1.90833 939226 14106.8
1.91644 921728 13910.5
1.92456 904208 13714
1.93267 886710 13517.8
1.94078 869212 13321.5
1.9489 851692 13125
1.95701 834194 12928.7
1.96513 816674 12732.2
1.97324 799176 12535.9
1.98135 781677 12339.6
1.98947 764158 12143.1
1.99758 746659 11946.9
2.00569 731840 11773.1
2.01381 718143 11608.7
2.02192 704462 11444.5
2.03004 690765 11280.1
2.03815 677085 11115.9
2.04626 663405 10951.7
2.05438 649708 10787.3
2.06249 636027 10623.1
2.0706 622347 10458.9
2.07872 608650 10294.5
2.08683 594970 10130.3
2.09494 581289 9966.12
2.10306 568781 9812.81
2.11117 558253 9678.01
2.11929 547711 9543.04
2.1274 537182 9408.24
2.13551 526654 9273.44
2.14363 516112 9138.47
2.15174 505584 9003.67
2.15985 495055 8868.87
2.16797 484513 8733.9
2.17608 473985 8599.1
2.1842 463443 8464.13
2.19231 452914 8329.33
2.20042 442521 8195.89
2.20854 434590 8087.22
2.21665 426670 7978.68
2.22476 418749 7870.14
2.23288 410818 7761.47
2.24099 402898 7652.94
2.24911 394967 7544.27
2.25722 387047 7435.73
2.26533 379126 7327.19
2.27345 371195 7218.52
2.28156 363275 7109.98
2.28967 355354 7001.45
2.29779 347423 6892.78
2.3059 341048 6800.93
2.31402 335245 6715.22
2.32213 329448 6629.62
2.33024 323652 6544.02
2.33836 317848 6458.31
2.34647 312052 6372.71
2.35458 306256 6287.11
2.3627 300452 6201.4
2.37081 294656 6115.8
2.37893 288852 6030.09
2.38704 283056 5944.49
2.39515 277259 5858.89
2.40327 272132 5781.85
2.41138 268013 5717.75
2.41949 263894 5653.65
2.42761 259770 5589.47
2.43572 255651 5525.36
2.44384 251527 5461.18
2.45195 247408 5397.08
2.46006 243289 5332.97
2.46818 239164 5268.79
2.47629 235045 5204.69
2.4844 230926 5140.59
2.49252 226802 5076.4
2.50063 222782 5014.39
2.50875 219927 4977.21
2.51686 217077 4940.06
2.52497 214226 4902.92
2.53309 211372 4865.73
2.5412 208522 4828.59
2.54931 205671 4791.45
2.55743 202817 4754.26
2.56554 199966 4717.12
2.57366 197112 4679.93
2.58177 194262 4642.79
2.58988 191411 4605.65
2.598 188557 4568.46
2.60611 186392 4552.98
2.61422 184452 4544.6
2.62234 182510 4536.2
2.63045 180569 4527.81
2.63857 178627 4519.42
2.64668 176687 4511.03
2.65479 174747 4502.65
2.66291 172804 4494.25
2.67102 170864 4485.87
2.67913 168924 4477.48
2.68725 166981 4469.08
2.69536 165041 4460.7
2.70347 163364 4452.73
2.71159 162036 4445.32
2.7197 160710 4437.91
2.72782 159382 4430.5
2.73593 158056 4423.1
2.74404 156730 4415.69
2.75216 155402 4408.28
2.76027 154076 4400.87
2.76838 152750 4393.47
2.7765 151422 4386.06
2.78461 150096 4378.65
2.79273 148768 4371.24
2.80084 147481 4361.47
2.80895 146539 4331.23
2.81707 145596 4300.96
2.82518 144654 4270.72
2.83329 143712 4240.48
2.84141 142769 4210.21
2.84952 141827 4179.97
2.85764 140884 4149.7
2.86575 139941 4119.46
2.87386 138999 4089.23
2.88198 138056 4058.95
2.89009 137114 4028.72
2.8982 136172 3998.48
2.90632 135399 3966.39
2.91443 134675 3933.81
2.92255 133950 3901.2
2.93066 133227 3868.63
2.93877 132503 3836.06
2.94689 131778 3803.45
2.955 131054 3770.87
2.96311 130330 3738.3
2.97123 129606 3705.69
2.97934 128882 3673.12
2.98746 128157 3640.5
2.99557 127433 3607.93
3.00368 126759 3573.61
3.0118 126142 3537.12
3.01991 125526 3500.69
3.02802 124911 3464.25
3.03614 124294 3427.77
3.04425 123679 3391.33
3.05237 123062 3354.85
3.06048 122446 3318.41
3.06859 121831 3281.97
3.07671 121214 3245.49
3.08482 120598 3209.05
3.09293 119983 3172.61
3.10105 119372 3136.31
3.10916 118800 3101.22
3.11728 118227 3066.08
3.12539 117655 3030.99
3.1335 117084 2995.9
3.14162 116511 2960.76
3.14973 115939 2925.67
3.15784 115367 2890.58
3.16596 114795 2855.45
3.17407 114223 2820.36
3.18219 113650 2785.22
3.1903 113078 2750.13
3.19841 112506 2715.04
3.20653 111946 2684.2
3.21464 111389 2654.45
3.22275 110833 2624.7
3.23087 110275 2594.91
3.23898 109719 2565.15
3.24709 109162 2535.4
3.25521 108605 2505.61
3.26332 108048 2475.86
3.27144 107491 2446.07
3.27955 106934 2416.31
3.28766 106378 2386.56
3.29578 105821 2356.77
3.30389 105270 2331.3
3.312 104727 2310.49
3.32012 104183 2289.64
3.32823 103640 2268.82
3.33635 103096 2247.98
3.34446 102553 2227.16
3.35257 102010 2206.34
3.36069 101466 2185.5
3.3688 100923 2164.68
3.37691 100380 2143.86
3.38503 99836.2 2123.02
3.39314 99293 2102.2
3.40126 98753.9 2083.18
3.40937 98241.1 2074.11
3.41748 97728.3 2065.04
3.4256 97214.9 2055.96
3.43371 96702 2046.89
3.44182 96189.2 2037.81
3.44994 95675.8 2028.73
3.45805 95163 2019.66
3.46617 94649.5 2010.58
3.47428 94136.7 2001.51
3.48239 93623.9 1992.44
3.49051 93110.5 1983.35
3.49862 92597.7 1974.28
3.50673 92133.2 1975.03
3.51485 91678.1 1977.79
3.52296 91223.5 1980.55
3.53108 90768.4 1983.31
3.53919 90313.8 1986.07
3.5473 89859.3 1988.83
3.55542 89404.2 1991.59
3.56353 88949.6 1994.35
3.57164 88495 1997.11
3.57976 88039.9 1999.87
3.58787 87585.4 2002.63
3.59599 87130.3 2005.4
3.6041 86721 2011.75
3.61221 86356 2021.62
3.62033 85990.5 2031.5
3.62844 85625.5 2041.37
3.63655 85260.5 2051.23
3.64467 84895 2061.11
3.65278 84530 2070.98
3.6609 84164.6 2080.86
3.66901 83799.6 2090.73
3.67712 83434.6 2100.6
3.68524 83069.1 2110.48
3.69335 82704.1 2120.35
3.70146 82360.1 2130.13
3.70958 82111.6 2139.51
3.71769 81863.4 2148.88
3.72581 81614.9 2158.26
3.73392 81366.7 2167.62
3.74203 81118.5 2176.99
3.75015 80870 2186.37
3.75826 80621.8 2195.74
3.76637 80373.6 2205.11
3.77449 80125.1 2214.49
3.7826 79876.9 2223.86
3.79072 79628.4 2233.24
3.79883 79380.2 2242.61
3.80694 79246.5 2247.08
3.81506 79131.9 2250.74
3.82317 79017.4 2254.38
3.83128 78902.9 2258.03
3.8394 78788.3 2261.69
3.84751 78673.9 2265.33
3.85562 78559.4 2268.98
3.86374 78444.8 2272.64
3.87185 78330.4 2276.29
3.87997 78215.8 2279.94
3.88808 78101.3 2283.59
3.89619 77986.9 2287.24
3.90431 77944.7 2287.39
3.91242 77966.4 2284.45
3.92053 77988.2 2281.51
3.92865 78010 2278.57
3.93676 78031.8 2275.64
3.94488 78053.6 2272.69
3.95299 78075.4 2269.76
3.9611 78097.2 2266.82
3.96922 78119 2263.88
3.97733 78140.7 2260.94
3.98544 78162.5 2258
3.99356 78184.3 2255.06
4.00167 78231.4 2251.1
4.00979 78376.5 2243.16
4.0179 78521.3 2235.24
4.02601 78666.2 2227.31
4.03413 78811.3 2219.38
4.04224 78956.1 2211.45
4.05035 79101 2203.53
4.05847 79246 2195.59
4.06658 79390.9 2187.67
4.0747 79536 2179.73
4.08281 79680.8 2171.81
4.09092 79825.7 2163.88
4.09904 79970.8 2155.95
4.10715 80200.6 2145.47
4.11526 80441.8 2134.66
4.12338 80683.3 2123.83
4.13149 80924.5 2113.01
4.13961 81166 2102.19
4.14772 81407.2 2091.37
4.15583 81648.5 2080.56
4.16395 81890 2069.73
4.17206 82131.2 2058.91
4.18017 82372.4 2048.1
4.18829 82613.9 2037.27
4.1964 82855.1 2026.45
4.20452 83130.3 2014.99
4.21263 83431.9 2003.04
4.22074 83733.6 1991.09
4.22886 84035.6 1979.12
4.23697 84337.2 1967.17
4.24508 84638.9 1955.22
4.2532 84940.9 1943.25
4.26131 85242.5 1931.3
4.26943 85544.5 1919.33
4.27754 85846.1 1907.38
4.28565 86147.8 1895.43
4.29377 86449.8 1883.46
4.30188 86756.4 1871.52
4.30999 87079.3 1859.61
4.31811 87402.6 1847.69
4.32622 87725.5 1835.78
4.33434 88048.8 1823.86
4.34245 88371.7 1811.95
4.35056 88694.6 1800.05
4.35868 89017.9 1788.13
4.36679 89340.8 1776.22
4.3749 89663.7 1764.31
4.38302 89987 1752.39
4.39113 90309.9 1740.48
4.39924 90632.8 1728.58
4.40736 90942.3 1717.27
4.41547 91249.9 1706.04
4.42359 91557.9 1694.8
4.4317 91865.5 1683.57
4.43981 92173.2 1672.34
4.44793 92481.2 1661.1
4.45604 92788.8 1649.87
4.46415 93096.4 1638.64
4.47227 93404.4 1627.39
4.48038 93712.1 1616.17
4.4885 94020.1 1604.92
4.49661 94327.7 1593.69
4.50472 94609.4 1582.98
4.51284 94872.7 1572.63
4.52095 95135.7 1562.29
4.52906 95398.7 1551.95
4.53718 95662 1541.6
4.54529 95925 1531.26
4.55341 96188.3 1520.9
4.56152 96451.3 1510.56
4.56963 96714.3 1500.22
4.57775 96977.7 1489.87
4.58586 97240.7 1479.53
4.59397 97503.7 1469.19
4.60209 97750.4 1459.06
4.6102 97949.2 1449.58
4.61832 98148.2 1440.1
4.62643 98346.9 1430.62
4.63454 98545.7 1421.15
4.64266 98744.7 1411.66
4.65077 98943.5 1402.19
4.65888 99142.2 1392.71
4.667 99341.2 1383.22
4.67511 99540 1373.75
4.68323 99739 1364.26
4.69134 99937.8 1354.79
4.69945 100137 1345.31
4.70757 100267 1336.57
4.71568 100392 1327.89
4.72379 100517 1319.21
4.73191 100642 1310.52
4.74002 100767 1301.84
4.74814 100892 1293.15
4.75625 101017 1284.47
4.76436 101142 1275.79
4.77248 101267 1267.09
4.78059 101392 1258.41
4.7887 101517 1249.73
4.79682 101642 1241.04
4.80493 101722 1232.85
4.81305 101772 1224.97
4.82116 101822 1217.1
4.82927 101872 1209.22
4.83739 101922 1201.34
4.8455 101973 1193.47
4.85361 102023 1185.6
4.86173 102073 1177.71
4.86984 102123 1169.84
4.87796 102174 1161.96
4.88607 102224 1154.08
4.89418 102274 1146.21
4.9023 102304 1139.29
4.91041 102285 1134.79
4.91852 102265 1130.3
4.92664 102246 1125.8
4.93475 102226 1121.3
4.94287 102207 1116.8
4.95098 102187 1112.31
4.95909 102168 1107.81
4.96721 102148 1103.31
4.97532 102128 1098.82
4.98343 102109 1094.32
4.99155 102089 1089.82
4.99966 102070 1085.33
5.00777 101991 1081.88
5.01589 101909 1078.47
5.024 101828 1075.07
5.03212 101746 1071.66
5.04023 101664 1068.26
5.04834 101583 1064.86
5.05646 101501 1061.45
5.06457 101419 1058.05
5.07268 101338 1054.64
5.0808 101256 1051.24
5.08891 101175 1047.83
5.09703 101093 1044.43
5.10514 100977 1041.43
5.11325 100842 1038.66
5.12137 100706 1035.9
5.12948 100571 1033.13
5.13759 100436 1030.37
5.14571 100300 1027.6
5.15382 100165 1024.84
5.16194 100029 1022.07
5.17005 99893.7 1019.31
5.17816 99758.3 1016.54
5.18628 99622.7 1013.78
5.19439 99487.3 1011.01
5.2025 99337.4 1008.4
5.21062 99154.3 1006.12
5.21873 98971.5 1003.85
5.22685 98788.5 1001.57
5.23496 98605.7 999.302
5.24307 98422.9 997.029
5.25119 98239.9 994.753
5.2593 98057.1 992.48
5.26741 97874.3 990.207
5.27553 97691.3 987.931
5.28364 97508.5 985.658
5.29176 97325.5 983.382
5.29987 97142.7 981.109
5.30798 96917.4 979.14
5.3161 96691 977.172
5.32421 96464.9 975.208
5.33232 96238.9 973.243
5.34044 96012.5 971.276
5.34855 95786.5 969.311
5.35667 95560.1 967.344
5.36478 95334.1 965.379
5.37289 95108 963.414
5.38101 94881.6 961.447
5.38912 94655.6 959.482
5.39723 94429.5 957.517
5.40535 94176 955.63
5.41346 93908.6 953.787
5.42158 93641 951.942
5.42969 93373.7 950.1
5.4378 93106.4 948.257
5.44592 92838.7 946.412
5.45403 92571.4 944.569
5.46214 92304.1 942.726
5.47026 92036.5 940.881
5.47837 91769.1 939.038
5.48649 91501.5 937.193
5.4946 91234.2 935.35
5.50271 90953.4 933.493
5.51083 90645.4 931.606
5.51894 90337.8 929.722
5.52705 90030.1 927.837
5.53517 89722.1 925.951
5.54328 89414.5 924.066
5.5514 89106.5 922.179
5.55951 88798.9 920.295
5.56762 88491.2 918.41
5.57574 88183.2 916.523
5.58385 87875.6 914.639
5.59196 87568 912.754
5.60008 87259.6 910.866
5.60819 86913.1 908.819
5.6163 86566.6 906.773
5.62442 86219.7 904.724
5.63253 85873.3 902.678
5.64065 85526.4 900.629
5.64876 85179.9 898.582
5.65687 84833.4 896.536
5.66499 84486.5 894.487
5.6731 84140 892.441
5.68121 83793.5 890.394
5.68933 83446.6 888.345
5.69744 83100.2 886.299
5.70556 82729.1 884.096
5.71367 82347.4 881.825
5.72178 81965.7 879.555
5.7299 81583.6 877.281
5.73801 81201.9 875.01
5.74612 80820.2 872.739
5.75424 80438 870.466
5.76235 80056.4 868.195
5.77047 79674.2 865.921
5.77858 79292.5 863.651
5.78669 78910.8 861.38
5.79481 78528.7 859.106
5.80292 78136.9 856.759
5.81103 77727.2 854.275
5.81915 77316.9 851.789
5.82726 76907.2 849.305
5.83538 76497 846.819
5.84349 76087.3 844.335
5.8516 75677.6 841.852
5.85972 75267.3 839.366
5.86783 74857.6 836.882
5.87594 74447.9 834.399
5.88406 74037.7 831.912
5.89217 73628 829.429
5.90029 73217.2 826.939
5.9084 72790.8 824.354
5.91651 72364.5 821.769
5.92463 71937.6 819.182
5.93274 71511.3 816.597
5.94085 71085 814.013
5.94897 70658.1 811.425
5.95708 70231.8 808.84
5.9652 69804.9 806.252
5.97331 69378.6 803.668
5.98142 68952.2 801.083
5.98954 68525.4 798.495
5.99765 68099 795.911
6.00576 67671.9 793.419
6.01388 67243.8 790.961
6.02199 66816.3 788.507
6.03011 66388.3 786.05
6.03822 65960.7 783.595
6.04633 65533.2 781.141
6.05445 65105.2 778.684
6.06256 64677.6 776.229
6.07067 64250.1 773.775
6.07879 63822.1 771.318
6.0869 63394.6 768.863
6.09502 62966.5 766.406
6.10313 62551.6 762.913
6.11124 62156.8 757.767
6.11936 61761.4 752.615
6.12747 61366.6 747.469
6.13558 60971.8 742.323
6.1437 60576.4 737.17
