#
# This scattering intensity file was created by WAXSiS
#
# The calculated I(q) was interpolated to the experimental q-values
#
# q[A-1]        I(q)              sigma(q)
0.115194 1.09253e+08 809192
0.123308 1.0837e+08 802550
0.131422 1.07487e+08 795908
0.139535 1.06604e+08 789267
0.147649 1.05721e+08 782625
0.155763 1.04838e+08 775983
0.163877 1.03956e+08 769341
0.17199 1.03073e+08 762700
0.180104 1.0219e+08 756058
0.188218 1.01307e+08 749416
0.196332 1.00424e+08 742774
0.204445 9.93383e+07 734990
0.212559 9.80848e+07 726263
0.220673 9.68313e+07 717536
0.228786 9.55779e+07 708809
0.2369 9.43244e+07 700082
0.245014 9.30709e+07 691355
0.253128 9.18174e+07 682628
0.261241 9.0564e+07 673901
0.269355 8.93105e+07 665174
0.277469 8.8057e+07 656447
0.285583 8.68035e+07 647720
0.293696 8.55501e+07 638993
0.30181 8.42688e+07 630150
0.309924 8.28908e+07 620904
0.318038 8.15129e+07 611658
0.326151 8.01351e+07 602413
0.334265 7.87571e+07 593167
0.342379 7.73791e+07 583921
0.350492 7.60013e+07 574676
0.358606 7.46233e+07 565430
0.36672 7.32453e+07 556184
0.374834 7.18674e+07 546938
0.382947 7.04896e+07 537693
0.391061 6.91116e+07 528447
0.399175 6.77336e+07 519201
0.407289 6.64423e+07 510369
0.415402 6.51609e+07 501585
0.423516 6.38793e+07 492800
0.43163 6.25978e+07 484014
0.439743 6.13164e+07 475230
0.447857 6.00348e+07 466445
0.455971 5.87533e+07 457660
0.464085 5.74717e+07 448874
0.472198 5.61903e+07 440090
0.480312 5.49088e+07 431305
0.488426 5.36272e+07 422520
0.49654 5.23457e+07 413734
0.504653 5.11995e+07 405508
0.512767 5.01537e+07 397695
0.520881 4.9108e+07 389883
0.528995 4.80622e+07 382070
0.537108 4.70165e+07 374259
0.545222 4.59708e+07 366446
0.553336 4.4925e+07 358634
0.561449 4.38793e+07 350822
0.569563 4.28336e+07 343010
0.577677 4.17878e+07 335197
0.585791 4.0742e+07 327385
0.593904 3.96964e+07 319573
0.602018 3.87194e+07 312034
0.610132 3.79503e+07 305321
0.618246 3.71811e+07 298607
0.626359 3.64121e+07 291895
0.634473 3.56429e+07 285181
0.642587 3.48738e+07 278468
0.650701 3.41046e+07 271754
0.658814 3.33355e+07 265041
0.666928 3.25664e+07 258328
0.675042 3.17972e+07 251614
0.683155 3.10282e+07 244902
0.691269 3.0259e+07 238188
0.699383 2.94899e+07 231475
0.707497 2.89426e+07 226227
0.71561 2.84135e+07 221101
0.723724 2.78845e+07 215974
0.731838 2.73554e+07 210847
0.739952 2.68263e+07 205720
0.748065 2.62973e+07 200593
0.756179 2.57682e+07 195466
0.764293 2.52391e+07 190339
0.772407 2.471e+07 185212
0.78052 2.4181e+07 180086
0.788634 2.36519e+07 174959
0.796748 2.31228e+07 169832
0.804861 2.2694e+07 165641
0.812975 2.23321e+07 162077
0.821089 2.19703e+07 158512
0.829203 2.16084e+07 154947
0.837316 2.12465e+07 151383
0.84543 2.08847e+07 147818
0.853544 2.05228e+07 144253
0.861658 2.01609e+07 140688
0.869771 1.97991e+07 137124
0.877885 1.94372e+07 133559
0.885999 1.90753e+07 129994
0.894113 1.87135e+07 126429
0.902226 1.83782e+07 123264
0.91034 1.81131e+07 121151
0.918454 1.7848e+07 119039
0.926567 1.75829e+07 116927
0.934681 1.73178e+07 114814
0.942795 1.70527e+07 112702
0.950909 1.67876e+07 110590
0.959022 1.65225e+07 108478
0.967136 1.62574e+07 106365
0.97525 1.59923e+07 104253
0.983364 1.57272e+07 102141
0.991477 1.54622e+07 100029
0.999591 1.51971e+07 97916.5
1.0077 1.498e+07 96451.4
1.01582 1.47652e+07 95018.6
1.02393 1.45507e+07 93587.6
1.03205 1.43358e+07 92154.8
1.04016 1.41213e+07 90723.8
1.04827 1.39068e+07 89292.9
1.05639 1.3692e+07 87860.1
1.0645 1.34774e+07 86429.1
1.07261 1.32629e+07 84998.1
1.08073 1.30481e+07 83565.4
1.08884 1.28335e+07 82134.4
1.09696 1.26187e+07 80701.6
1.10507 1.24231e+07 79547.5
1.11318 1.22387e+07 78559.4
1.1213 1.20542e+07 77570.2
1.12941 1.18699e+07 76582.1
1.13752 1.16855e+07 75594
1.14564 1.1501e+07 74604.7
1.15375 1.13167e+07 73616.7
1.16187 1.11321e+07 72627.4
1.16998 1.09478e+07 71639.3
1.17809 1.07635e+07 70651.3
1.18621 1.05789e+07 69662
1.19432 1.03946e+07 68673.9
1.20243 1.02181e+07 67806.2
1.21055 1.00598e+07 67219
1.21866 9.90161e+06 66632.5
1.22678 9.74326e+06 66045.3
1.23489 9.58511e+06 65458.9
1.243 9.42696e+06 64872.4
1.25112 9.26861e+06 64285.2
1.25923 9.11046e+06 63698.7
1.26734 8.9523e+06 63112.3
1.27546 8.79395e+06 62525.1
1.28357 8.6358e+06 61938.6
1.29169 8.47745e+06 61351.4
1.2998 8.3193e+06 60765
1.30791 8.18705e+06 60302.7
1.31603 8.0553e+06 59843
1.32414 7.9237e+06 59383.9
1.33225 7.79211e+06 58924.7
1.34037 7.66036e+06 58465
1.34848 7.52876e+06 58005.9
1.3566 7.39701e+06 57546.2
1.36471 7.26542e+06 57087.1
1.37282 7.13382e+06 56627.9
1.38094 7.00207e+06 56168.2
1.38905 6.87047e+06 55709.1
1.39716 6.73888e+06 55250
1.40528 6.62314e+06 54784.2
1.41339 6.51615e+06 54315.8
1.42151 6.40902e+06 53846.7
1.42962 6.30203e+06 53378.3
1.43773 6.19503e+06 52909.8
1.44585 6.08791e+06 52440.8
1.45396 5.98091e+06 51972.4
1.46207 5.87392e+06 51503.9
1.47019 5.76679e+06 51034.9
1.4783 5.6598e+06 50566.4
1.48641 5.5528e+06 50098
1.49453 5.44568e+06 49629
1.50264 5.3451e+06 49122.2
1.51076 5.2577e+06 48535.1
1.51887 5.17042e+06 47948.9
1.52698 5.08314e+06 47362.6
1.5351 4.99574e+06 46775.6
1.54321 4.90846e+06 46189.3
1.55132 4.82117e+06 45603
1.55944 4.73378e+06 45016
1.56755 4.6465e+06 44429.7
1.57567 4.5591e+06 43842.7
1.58378 4.47182e+06 43256.5
1.59189 4.38453e+06 42670.2
1.60001 4.29716e+06 42083.1
1.60812 4.22436e+06 41453.8
1.61623 4.15157e+06 40824.4
1.62435 4.07868e+06 40194.3
1.63246 4.00589e+06 39564.9
1.64058 3.933e+06 38934.8
1.64869 3.86021e+06 38305.5
1.6568 3.78741e+06 37676.1
1.66492 3.71453e+06 37046
1.67303 3.64173e+06 36416.6
1.68114 3.56894e+06 35787.3
1.68926 3.49605e+06 35157.1
1.69737 3.42326e+06 34527.8
1.70549 3.35798e+06 33936.7
1.7136 3.29643e+06 33365.1
1.72171 3.23488e+06 32793.5
1.72983 3.17325e+06 32221.2
1.73794 3.1117e+06 31649.6
1.74605 3.05015e+06 31078
1.75417 2.98852e+06 30505.6
1.76228 2.92697e+06 29934
1.7704 2.86534e+06 29361.7
1.77851 2.80379e+06 28790.1
1.78662 2.74224e+06 28218.5
1.79474 2.68061e+06 27646.1
1.80285 2.62267e+06 27106.3
1.81096 2.57139e+06 26625.3
1.81908 2.52005e+06 26143.6
1.82719 2.46878e+06 25662.5
1.83531 2.41744e+06 25180.8
1.84342 2.36616e+06 24699.7
1.85153 2.31488e+06 24218.6
1.85965 2.26354e+06 23737
1.86776 2.21226e+06 23255.9
1.87587 2.16099e+06 22774.8
1.88399 2.10965e+06 22293.1
1.8921 2.05837e+06 21812
1.90022 2.00731e+06 21334
1.90833 1.96636e+06 20986.3
1.91644 1.92541e+06 20638.6
1.92456 1.88442e+06 20290.4
1.93267 1.84347e+06 19942.7
1.94078 1.80252e+06 19595
1.9489 1.76152e+06 19246.9
1.95701 1.72058e+06 18899.2
1.96513 1.67958e+06 18551.1
1.97324 1.63863e+06 18203.4
1.98135 1.59768e+06 17855.7
1.98947 1.55669e+06 17507.6
1.99758 1.51574e+06 17159.9
2.00569 1.4818e+06 16908.1
2.01381 1.45079e+06 16696.8
2.02192 1.41983e+06 16485.9
2.03004 1.38883e+06 16274.6
2.03815 1.35787e+06 16063.6
2.04626 1.3269e+06 15852.6
2.05438 1.2959e+06 15641.4
2.06249 1.26494e+06 15430.4
2.0706 1.23398e+06 15219.4
2.07872 1.20297e+06 15008.2
2.08683 1.17201e+06 14797.2
2.09494 1.14105e+06 14586.2
2.10306 1.11331e+06 14409.8
2.11117 1.091e+06 14291
2.11929 1.06867e+06 14172
2.1274 1.04636e+06 14053.2
2.13551 1.02405e+06 13934.4
2.14363 1.00171e+06 13815.5
2.15174 979401 13696.7
2.15985 957092 13577.9
2.16797 934755 13458.9
2.17608 912445 13340.1
2.1842 890108 13221.2
2.19231 867799 13102.4
2.20042 845835 12984.9
2.20854 830174 12892.8
2.21665 814532 12800.7
2.22476 798890 12708.7
2.23288 783228 12616.5
2.24099 767586 12524.5
2.24911 751925 12432.4
2.25722 736283 12340.3
2.26533 720641 12248.3
2.27345 704980 12156.1
2.28156 689338 12064.1
2.28967 673696 11972
2.29779 658034 11879.9
2.3059 645813 11771.8
2.31402 634858 11657.6
2.32213 623918 11543.6
2.33024 612977 11429.5
2.33836 602022 11315.3
2.34647 591082 11201.3
2.35458 580141 11087.2
2.3627 569187 10973
2.37081 558246 10859
2.37893 547291 10744.8
2.38704 536351 10630.8
2.39515 525410 10516.7
2.40327 515753 10387.2
2.41138 508030 10235.1
2.41949 500306 10083
2.42761 492573 9930.69
2.43572 484850 9778.59
2.44384 477117 9626.31
2.45195 469394 9474.21
2.46006 461671 9322.11
2.46818 453938 9169.83
2.47629 446215 9017.73
2.4844 438491 8865.63
2.49252 430758 8713.34
2.50063 423211 8561.28
2.50875 417750 8409.41
2.51686 412295 8257.73
2.52497 406840 8106.05
2.53309 401379 7954.18
2.5412 395924 7802.5
2.54931 390470 7650.82
2.55743 385008 7498.96
2.56554 379553 7347.28
2.57366 374092 7195.41
2.58177 368637 7043.73
2.58988 363183 6892.05
2.598 357721 6740.19
2.60611 353513 6651.89
2.61422 349714 6584.35
2.62234 345909 6516.72
2.63045 342109 6449.17
2.63857 338305 6381.54
2.64668 334505 6314
2.65479 330705 6246.45
2.66291 326901 6178.82
2.67102 323101 6111.28
2.67913 319301 6043.73
2.68725 315497 5976.1
2.69536 311697 5908.56
2.70347 308400 5850.05
2.71159 305771 5803.59
2.7197 303145 5757.18
2.72782 300517 5710.72
2.73593 297891 5664.31
2.74404 295265 5617.9
2.75216 292637 5571.44
2.76027 290011 5525.03
2.76838 287386 5478.63
2.7765 284757 5432.16
2.78461 282131 5385.75
2.79273 279503 5339.29
2.80084 276955 5292.91
2.80895 275081 5246.78
2.81707 273204 5200.59
2.82518 271330 5154.46
2.83329 269456 5108.33
2.84141 267579 5062.14
2.84952 265705 5016.01
2.85764 263828 4969.82
2.86575 261954 4923.68
2.87386 260080 4877.55
2.88198 258203 4831.36
2.89009 256329 4785.23
2.8982 254455 4739.1
2.90632 252900 4689.38
2.91443 251439 4638.73
2.92255 249976 4588.01
2.93066 248515 4537.35
2.93877 247054 4486.69
2.94689 245591 4435.97
2.955 244130 4385.31
2.96311 242668 4334.66
2.97123 241205 4283.94
2.97934 239744 4233.28
2.98746 238281 4182.56
2.99557 236820 4131.9
3.00368 235449 4082.78
3.0118 234185 4035.45
3.01991 232922 3988.17
3.02802 231660 3940.9
3.03614 230395 3893.57
3.04425 229133 3846.3
3.05237 227869 3798.97
3.06048 226606 3751.69
3.06859 225343 3704.42
3.07671 224079 3657.09
3.08482 222816 3609.81
3.09293 221554 3562.54
3.10105 220303 3516.78
3.10916 219143 3481.63
3.11728 217982 3446.44
3.12539 216822 3411.3
3.1335 215663 3376.15
3.14162 214502 3340.96
3.14973 213342 3305.82
3.15784 212182 3270.67
3.16596 211021 3235.48
3.17407 209862 3200.33
3.18219 208701 3165.14
3.1903 207541 3130
3.19841 206381 3094.85
3.20653 205286 3072.06
3.21464 204208 3052.31
3.22275 203130 3032.57
3.23087 202051 3012.79
3.23898 200973 2993.05
3.24709 199895 2973.3
3.25521 198816 2953.53
3.26332 197738 2933.78
3.27144 196659 2914.01
3.27955 195581 2894.26
3.28766 194503 2874.52
3.29578 193424 2854.75
3.30389 192389 2841.75
3.312 191400 2836.07
3.32012 190410 2830.39
3.32823 189422 2824.71
3.33635 188432 2819.03
3.34446 187443 2813.35
3.35257 186455 2807.68
3.36069 185465 2801.99
3.3688 184476 2796.32
3.37691 183488 2790.64
3.38503 182498 2784.96
3.39314 181509 2779.28
3.40126 180536 2775.32
3.40937 179654 2780.73
3.41748 178772 2786.15
3.4256 177890 2791.57
3.43371 177008 2796.98
3.44182 176126 2802.39
3.44994 175243 2807.81
3.45805 174361 2813.23
3.46617 173478 2818.65
3.47428 172597 2824.06
3.48239 171715 2829.48
3.49051 170832 2834.9
3.49862 169950 2840.31
3.50673 169186 2851.39
3.51485 168445 2863.65
3.52296 167705 2875.9
3.53108 166965 2888.15
3.53919 166225 2900.4
3.5473 165485 2912.64
3.55542 164744 2924.9
3.56353 164004 2937.15
3.57164 163264 2949.39
3.57976 162523 2961.65
3.58787 161784 2973.9
3.59599 161043 2986.16
3.6041 160407 2998.45
3.61221 159874 3010.79
3.62033 159339 3023.15
3.62844 158806 3035.49
3.63655 158272 3047.83
3.64467 157738 3060.18
3.65278 157205 3072.53
3.6609 156670 3084.88
3.66901 156137 3097.22
3.67712 155603 3109.56
3.68524 155069 3121.92
3.69335 154536 3134.26
3.70146 154054 3145.45
3.70958 153811 3151.39
3.71769 153568 3157.32
3.72581 153325 3163.26
3.73392 153082 3169.2
3.74203 152839 3175.13
3.75015 152596 3181.07
3.75826 152353 3187
3.76637 152110 3192.94
3.77449 151866 3198.88
3.7826 151623 3204.81
3.79072 151380 3210.75
3.79883 151137 3216.68
3.80694 151198 3217.66
3.81506 151310 3217.8
3.82317 151422 3217.94
3.83128 151534 3218.08
3.8394 151646 3218.22
3.84751 151758 3218.36
3.85562 151870 3218.5
3.86374 151982 3218.64
3.87185 152094 3218.78
3.87997 152206 3218.92
3.88808 152318 3219.06
3.89619 152430 3219.2
3.90431 152716 3218.9
3.91242 153153 3218.21
3.92053 153591 3217.52
3.92865 154029 3216.83
3.93676 154467 3216.14
3.94488 154905 3215.45
3.95299 155342 3214.76
3.9611 155780 3214.06
3.96922 156218 3213.37
3.97733 156656 3212.68
3.98544 157093 3211.99
3.99356 157531 3211.3
4.00167 158031 3221.1
4.00979 158769 3271.44
4.0179 159506 3321.72
4.02601 160243 3372
4.03413 160981 3422.34
4.04224 161718 3472.61
4.05035 162455 3522.89
4.05847 163193 3573.23
4.06658 163930 3623.51
4.0747 164668 3673.85
4.08281 165405 3724.12
4.09092 166142 3774.4
4.09904 166880 3824.74
4.10715 167570 3850.97
4.11526 168254 3873.98
4.12338 168938 3897.02
4.13149 169622 3920.03
4.13961 170307 3943.06
4.14772 170991 3966.07
4.15583 171675 3989.08
4.16395 172359 4012.12
4.17206 173043 4035.12
4.18017 173727 4058.13
4.18829 174412 4081.17
4.1964 175095 4104.18
4.20452 175673 4097.98
4.21263 176165 4068.53
4.22074 176657 4039.08
4.22886 177150 4009.59
4.23697 177642 3980.14
4.24508 178134 3950.7
4.2532 178627 3921.21
4.26131 179119 3891.76
4.26943 179611 3862.28
4.27754 180103 3832.83
4.28565 180595 3803.38
4.29377 181088 3773.89
4.30188 181489 3736.76
4.30999 181589 3674.18
4.31811 181689 3611.51
4.32622 181789 3548.93
4.33434 181889 3486.26
4.34245 181989 3423.68
4.35056 182089 3361.09
4.35868 182189 3298.43
4.36679 182289 3235.84
4.3749 182389 3173.26
4.38302 182489 3110.6
4.39113 182589 3048.01
4.39924 182689 2985.42
4.40736 182534 2932.7
4.41547 182354 2881.07
4.42359 182173 2829.38
4.4317 181993 2777.75
4.43981 181813 2726.11
4.44793 181632 2674.42
4.45604 181452 2622.79
4.46415 181271 2571.16
4.47227 181091 2519.46
4.48038 180910 2467.83
4.4885 180730 2416.13
4.49661 180549 2364.5
4.50472 180316 2336.75
4.51284 180046 2326.14
4.52095 179775 2315.54
4.52906 179504 2304.94
4.53718 179233 2294.33
4.54529 178963 2283.73
4.55341 178692 2273.11
4.56152 178421 2262.51
4.56963 178150 2251.91
4.57775 177879 2241.3
4.58586 177609 2230.7
4.59397 177338 2220.1
4.60209 177091 2211.34
4.6102 176912 2207.94
4.61832 176733 2204.53
4.62643 176555 2201.12
4.63454 176376 2197.72
4.64266 176197 2194.31
4.65077 176019 2190.91
4.65888 175840 2187.5
4.667 175661 2184.09
4.67511 175482 2180.69
4.68323 175303 2177.28
4.69134 175125 2173.88
4.69945 174946 2170.47
4.70757 175041 2172.76
4.71568 175155 2175.46
4.72379 175269 2178.16
4.73191 175383 2180.87
4.74002 175497 2183.57
4.74814 175612 2186.27
4.75625 175726 2188.97
4.76436 175840 2191.67
4.77248 175955 2194.38
4.78059 176069 2197.08
4.7887 176183 2199.78
4.79682 176297 2202.48
4.80493 176654 2197.67
4.81305 177168 2188.01
4.82116 177682 2178.36
4.82927 178195 2168.71
4.83739 178710 2159.05
4.8455 179223 2149.4
4.85361 179737 2139.74
4.86173 180251 2130.08
4.86984 180764 2120.43
4.87796 181278 2110.77
4.88607 181792 2101.12
4.89418 182305 2091.47
4.9023 182843 2086.53
4.91041 183441 2093.53
4.91852 184038 2100.53
4.92664 184637 2107.54
4.93475 185234 2114.54
4.94287 185832 2121.55
4.95098 186430 2128.55
4.95909 187027 2135.55
4.96721 187625 2142.56
4.97532 188223 2149.56
4.98343 188820 2156.57
4.99155 189418 2163.58
4.99966 190016 2170.58
5.00777 190536 2184.24
5.01589 191053 2198.22
5.024 191570 2212.18
5.03212 192087 2226.15
5.04023 192604 2240.11
5.04834 193120 2254.07
5.05646 193638 2268.05
5.06457 194154 2282.01
5.07268 194671 2295.97
5.0808 195188 2309.94
5.08891 195705 2323.9
5.09703 196222 2337.88
5.10514 196443 2349.63
5.11325 196495 2360.11
5.12137 196546 2370.6
5.12948 196597 2381.08
5.13759 196649 2391.56
5.14571 196700 2402.05
5.15382 196751 2412.53
5.16194 196802 2423.02
5.17005 196854 2433.5
5.17816 196905 2443.98
5.18628 196956 2454.47
5.19439 197008 2464.95
5.2025 196911 2471.25
5.21062 196481 2468.17
5.21873 196051 2465.09
5.22685 195621 2462.01
5.23496 195192 2458.94
5.24307 194762 2455.86
5.25119 194332 2452.78
5.2593 193903 2449.7
5.26741 193474 2446.62
5.27553 193044 2443.54
5.28364 192614 2440.47
5.29176 192184 2437.39
5.29987 191755 2434.31
5.30798 190922 2420.73
5.3161 190082 2406.97
5.32421 189242 2393.22
5.33232 188403 2379.48
5.34044 187562 2365.71
5.34855 186723 2351.97
5.35667 185883 2338.2
5.36478 185043 2324.46
5.37289 184204 2310.71
5.38101 183363 2296.95
5.38912 182524 2283.2
5.39723 181685 2269.46
5.40535 180688 2240.61
5.41346 179611 2204
5.42158 178532 2167.35
5.42969 177455 2130.74
5.4378 176379 2094.13
5.44592 175300 2057.48
5.45403 174223 2020.87
5.46214 173146 1984.27
5.47026 172068 1947.61
5.47837 170991 1911.01
5.48649 169913 1874.35
5.4946 168836 1837.75
5.50271 167773 1807.56
5.51083 166735 1790.15
5.51894 165699 1772.76
5.52705 164662 1755.37
5.53517 163625 1737.96
5.54328 162588 1720.57
5.5514 161551 1703.16
5.55951 160514 1685.77
5.56762 159478 1668.38
5.57574 158440 1650.97
5.58385 157404 1633.58
5.59196 156367 1616.19
5.60008 155332 1598.89
5.60819 154521 1593.22
5.6163 153710 1587.54
5.62442 152898 1581.86
5.63253 152087 1576.19
5.64065 151275 1570.5
5.64876 150464 1564.83
5.65687 149654 1559.15
5.66499 148842 1553.47
5.6731 148031 1547.79
5.68121 147220 1542.12
5.68933 146408 1536.44
5.69744 145597 1530.76
5.70556 144956 1525.15
5.71367 144394 1519.58
5.72178 143833 1514.02
5.7299 143270 1508.44
5.73801 142708 1502.87
5.74612 142147 1497.3
5.75424 141584 1491.73
5.76235 141023 1486.16
5.77047 140460 1480.59
5.77858 139899 1475.02
5.78669 139337 1469.45
5.79481 138774 1463.87
5.80292 138301 1458.1
5.81103 137985 1451.95
5.81915 137668 1445.79
5.82726 137352 1439.64
5.83538 137036 1433.48
5.84349 136719 1427.33
5.8516 136403 1421.18
5.85972 136087 1415.02
5.86783 135770 1408.87
5.87594 135454 1402.72
5.88406 135138 1396.57
5.89217 134821 1390.42
5.90029 134507 1384.46
5.9084 134258 1384.01
5.91651 134010 1383.56
5.92463 133761 1383.1
5.93274 133512 1382.65
5.94085 133263 1382.2
5.94897 133014 1381.74
5.95708 132765 1381.29
5.9652 132516 1380.84
5.97331 132268 1380.38
5.98142 132019 1379.93
5.98954 131770 1379.47
5.99765 131521 1379.02
6.00576 131222 1376.04
6.01388 130901 1372.02
6.02199 130581 1368
6.03011 130261 1363.98
6.03822 129941 1359.96
6.04633 129621 1355.95
6.05445 129301 1351.93
6.06256 128981 1347.91
6.07067 128661 1343.89
6.07879 128341 1339.87
6.0869 128021 1335.86
6.09502 127700 1331.84
6.10313 127300 1331.83
6.11124 126773 1338.21
6.11936 126245 1344.59
6.12747 125717 1350.96
6.13558 125190 1357.34
6.1437 124662 1363.72
